# E (eV)  ldosup(E)  ldosdw(E) pdosup(E)  pdosdw(E) 
 -21.887  0.000E+00  0.000E+00  0.000E+00  0.000E+00
 -21.877  0.303E-01  0.303E-01  0.303E-01  0.303E-01
 -21.867  0.604E-01  0.604E-01  0.604E-01  0.604E-01
 -21.857  0.902E-01  0.903E-01  0.902E-01  0.903E-01
 -21.847  0.120E+00  0.120E+00  0.120E+00  0.120E+00
 -21.837  0.635E-01  0.635E-01  0.635E-01  0.635E-01
 -21.827  0.658E-01  0.658E-01  0.658E-01  0.658E-01
 -21.817  0.680E-01  0.680E-01  0.680E-01  0.680E-01
 -21.807  0.703E-01  0.703E-01  0.703E-01  0.703E-01
 -21.797  0.725E-01  0.725E-01  0.725E-01  0.725E-01
 -21.787  0.747E-01  0.747E-01  0.747E-01  0.747E-01
 -21.777  0.768E-01  0.769E-01  0.768E-01  0.769E-01
 -21.767  0.790E-01  0.790E-01  0.790E-01  0.790E-01
 -21.757  0.774E-01  0.774E-01  0.774E-01  0.774E-01
 -21.747  0.741E-01  0.741E-01  0.741E-01  0.741E-01
 -21.737  0.709E-01  0.709E-01  0.709E-01  0.709E-01
 -21.727  0.677E-01  0.677E-01  0.677E-01  0.677E-01
 -21.717  0.668E-01  0.668E-01  0.668E-01  0.668E-01
 -21.707  0.674E-01  0.674E-01  0.674E-01  0.674E-01
 -21.697  0.680E-01  0.680E-01  0.680E-01  0.680E-01
 -21.687  0.686E-01  0.686E-01  0.686E-01  0.686E-01
 -21.677  0.692E-01  0.692E-01  0.692E-01  0.692E-01
 -21.667  0.698E-01  0.698E-01  0.698E-01  0.698E-01
 -21.657  0.704E-01  0.704E-01  0.704E-01  0.704E-01
 -21.647  0.710E-01  0.710E-01  0.710E-01  0.710E-01
 -21.637  0.716E-01  0.716E-01  0.716E-01  0.716E-01
 -21.627  0.722E-01  0.722E-01  0.722E-01  0.722E-01
 -21.617  0.728E-01  0.728E-01  0.728E-01  0.728E-01
 -21.607  0.734E-01  0.734E-01  0.734E-01  0.734E-01
 -21.597  0.681E-01  0.681E-01  0.681E-01  0.681E-01
 -21.587  0.677E-01  0.677E-01  0.677E-01  0.677E-01
 -21.577  0.673E-01  0.673E-01  0.673E-01  0.673E-01
 -21.567  0.669E-01  0.669E-01  0.669E-01  0.669E-01
 -21.557  0.666E-01  0.666E-01  0.666E-01  0.666E-01
 -21.547  0.662E-01  0.662E-01  0.662E-01  0.662E-01
 -21.537  0.659E-01  0.659E-01  0.659E-01  0.659E-01
 -21.527  0.655E-01  0.655E-01  0.655E-01  0.655E-01
 -21.517  0.652E-01  0.652E-01  0.652E-01  0.652E-01
 -21.507  0.655E-01  0.655E-01  0.655E-01  0.655E-01
 -21.497  0.657E-01  0.657E-01  0.657E-01  0.657E-01
 -21.487  0.659E-01  0.659E-01  0.659E-01  0.659E-01
 -21.477  0.661E-01  0.661E-01  0.661E-01  0.661E-01
 -21.467  0.663E-01  0.663E-01  0.663E-01  0.663E-01
 -21.457  0.666E-01  0.666E-01  0.666E-01  0.666E-01
 -21.447  0.668E-01  0.668E-01  0.668E-01  0.668E-01
 -21.437  0.670E-01  0.670E-01  0.670E-01  0.670E-01
 -21.427  0.672E-01  0.672E-01  0.672E-01  0.672E-01
 -21.417  0.674E-01  0.674E-01  0.674E-01  0.674E-01
 -21.407  0.676E-01  0.676E-01  0.676E-01  0.676E-01
 -21.397  0.678E-01  0.678E-01  0.678E-01  0.678E-01
 -21.387  0.668E-01  0.668E-01  0.668E-01  0.668E-01
 -21.377  0.656E-01  0.656E-01  0.656E-01  0.656E-01
 -21.367  0.645E-01  0.645E-01  0.645E-01  0.645E-01
 -21.357  0.633E-01  0.633E-01  0.633E-01  0.633E-01
 -21.347  0.630E-01  0.630E-01  0.630E-01  0.630E-01
 -21.337  0.629E-01  0.629E-01  0.629E-01  0.629E-01
 -21.327  0.628E-01  0.628E-01  0.628E-01  0.628E-01
 -21.317  0.628E-01  0.628E-01  0.628E-01  0.628E-01
 -21.307  0.627E-01  0.627E-01  0.627E-01  0.627E-01
 -21.297  0.626E-01  0.626E-01  0.626E-01  0.626E-01
 -21.287  0.625E-01  0.625E-01  0.625E-01  0.625E-01
 -21.277  0.624E-01  0.624E-01  0.624E-01  0.624E-01
 -21.267  0.624E-01  0.624E-01  0.624E-01  0.624E-01
 -21.257  0.623E-01  0.623E-01  0.623E-01  0.623E-01
 -21.247  0.622E-01  0.622E-01  0.622E-01  0.622E-01
 -21.237  0.621E-01  0.621E-01  0.621E-01  0.621E-01
 -21.227  0.622E-01  0.622E-01  0.622E-01  0.622E-01
 -21.217  0.622E-01  0.622E-01  0.622E-01  0.622E-01
 -21.207  0.623E-01  0.623E-01  0.623E-01  0.623E-01
 -21.197  0.624E-01  0.624E-01  0.624E-01  0.624E-01
 -21.187  0.625E-01  0.625E-01  0.625E-01  0.625E-01
 -21.177  0.626E-01  0.626E-01  0.626E-01  0.626E-01
 -21.167  0.627E-01  0.627E-01  0.627E-01  0.627E-01
 -21.157  0.627E-01  0.627E-01  0.627E-01  0.627E-01
 -21.147  0.628E-01  0.628E-01  0.628E-01  0.628E-01
 -21.137  0.629E-01  0.629E-01  0.629E-01  0.629E-01
 -21.127  0.630E-01  0.630E-01  0.630E-01  0.630E-01
 -21.117  0.630E-01  0.630E-01  0.630E-01  0.630E-01
 -21.107  0.612E-01  0.612E-01  0.612E-01  0.612E-01
 -21.097  0.609E-01  0.609E-01  0.609E-01  0.609E-01
 -21.087  0.606E-01  0.606E-01  0.606E-01  0.606E-01
 -21.077  0.603E-01  0.603E-01  0.603E-01  0.603E-01
 -21.067  0.601E-01  0.601E-01  0.601E-01  0.601E-01
 -21.057  0.598E-01  0.598E-01  0.598E-01  0.598E-01
 -21.047  0.595E-01  0.595E-01  0.595E-01  0.595E-01
 -21.037  0.592E-01  0.592E-01  0.592E-01  0.592E-01
 -21.027  0.590E-01  0.590E-01  0.590E-01  0.590E-01
 -21.017  0.589E-01  0.589E-01  0.589E-01  0.589E-01
 -21.007  0.589E-01  0.589E-01  0.589E-01  0.589E-01
 -20.997  0.589E-01  0.589E-01  0.589E-01  0.589E-01
 -20.987  0.588E-01  0.588E-01  0.588E-01  0.588E-01
 -20.977  0.588E-01  0.588E-01  0.588E-01  0.588E-01
 -20.967  0.588E-01  0.588E-01  0.588E-01  0.588E-01
 -20.957  0.588E-01  0.588E-01  0.588E-01  0.588E-01
 -20.947  0.587E-01  0.587E-01  0.587E-01  0.587E-01
 -20.937  0.587E-01  0.587E-01  0.587E-01  0.587E-01
 -20.927  0.587E-01  0.587E-01  0.587E-01  0.587E-01
 -20.917  0.586E-01  0.586E-01  0.586E-01  0.586E-01
 -20.907  0.586E-01  0.586E-01  0.586E-01  0.586E-01
 -20.897  0.586E-01  0.586E-01  0.586E-01  0.586E-01
 -20.887  0.586E-01  0.586E-01  0.586E-01  0.586E-01
 -20.877  0.585E-01  0.585E-01  0.585E-01  0.585E-01
 -20.867  0.585E-01  0.585E-01  0.585E-01  0.585E-01
 -20.857  0.585E-01  0.585E-01  0.585E-01  0.585E-01
 -20.847  0.586E-01  0.586E-01  0.586E-01  0.586E-01
 -20.837  0.586E-01  0.586E-01  0.586E-01  0.586E-01
 -20.827  0.586E-01  0.586E-01  0.586E-01  0.586E-01
 -20.817  0.586E-01  0.586E-01  0.586E-01  0.586E-01
 -20.807  0.587E-01  0.587E-01  0.587E-01  0.587E-01
 -20.797  0.587E-01  0.587E-01  0.587E-01  0.587E-01
 -20.787  0.587E-01  0.587E-01  0.587E-01  0.587E-01
 -20.777  0.583E-01  0.583E-01  0.583E-01  0.583E-01
 -20.767  0.578E-01  0.578E-01  0.578E-01  0.578E-01
 -20.757  0.573E-01  0.573E-01  0.573E-01  0.573E-01
 -20.747  0.568E-01  0.568E-01  0.568E-01  0.568E-01
 -20.737  0.566E-01  0.566E-01  0.566E-01  0.566E-01
 -20.727  0.565E-01  0.565E-01  0.565E-01  0.565E-01
 -20.717  0.563E-01  0.563E-01  0.563E-01  0.563E-01
 -20.707  0.562E-01  0.562E-01  0.562E-01  0.562E-01
 -20.697  0.561E-01  0.561E-01  0.561E-01  0.561E-01
 -20.687  0.560E-01  0.560E-01  0.560E-01  0.560E-01
 -20.677  0.559E-01  0.559E-01  0.559E-01  0.559E-01
 -20.667  0.558E-01  0.558E-01  0.558E-01  0.558E-01
 -20.657  0.557E-01  0.557E-01  0.557E-01  0.557E-01
 -20.647  0.556E-01  0.556E-01  0.556E-01  0.556E-01
 -20.637  0.554E-01  0.554E-01  0.554E-01  0.554E-01
 -20.627  0.553E-01  0.553E-01  0.553E-01  0.553E-01
 -20.617  0.553E-01  0.553E-01  0.553E-01  0.553E-01
 -20.607  0.553E-01  0.553E-01  0.553E-01  0.553E-01
 -20.597  0.553E-01  0.553E-01  0.553E-01  0.553E-01
 -20.587  0.552E-01  0.552E-01  0.552E-01  0.552E-01
 -20.577  0.552E-01  0.552E-01  0.552E-01  0.552E-01
 -20.567  0.552E-01  0.552E-01  0.552E-01  0.552E-01
 -20.557  0.552E-01  0.552E-01  0.552E-01  0.552E-01
 -20.547  0.552E-01  0.552E-01  0.552E-01  0.552E-01
 -20.537  0.552E-01  0.552E-01  0.552E-01  0.552E-01
 -20.527  0.551E-01  0.551E-01  0.551E-01  0.551E-01
 -20.517  0.551E-01  0.551E-01  0.551E-01  0.551E-01
 -20.507  0.551E-01  0.551E-01  0.551E-01  0.551E-01
 -20.497  0.551E-01  0.551E-01  0.551E-01  0.551E-01
 -20.487  0.551E-01  0.551E-01  0.551E-01  0.551E-01
 -20.477  0.551E-01  0.551E-01  0.551E-01  0.551E-01
 -20.467  0.550E-01  0.550E-01  0.550E-01  0.550E-01
 -20.457  0.550E-01  0.550E-01  0.550E-01  0.550E-01
 -20.447  0.550E-01  0.550E-01  0.550E-01  0.550E-01
 -20.437  0.550E-01  0.550E-01  0.550E-01  0.550E-01
 -20.427  0.550E-01  0.550E-01  0.550E-01  0.550E-01
 -20.417  0.550E-01  0.550E-01  0.550E-01  0.550E-01
 -20.407  0.550E-01  0.550E-01  0.550E-01  0.550E-01
 -20.397  0.550E-01  0.550E-01  0.550E-01  0.550E-01
 -20.387  0.550E-01  0.550E-01  0.550E-01  0.550E-01
 -20.377  0.542E-01  0.542E-01  0.542E-01  0.542E-01
 -20.367  0.540E-01  0.540E-01  0.540E-01  0.540E-01
 -20.357  0.538E-01  0.538E-01  0.538E-01  0.538E-01
 -20.347  0.537E-01  0.537E-01  0.537E-01  0.537E-01
 -20.337  0.535E-01  0.535E-01  0.535E-01  0.535E-01
 -20.327  0.533E-01  0.533E-01  0.533E-01  0.533E-01
 -20.317  0.532E-01  0.532E-01  0.532E-01  0.532E-01
 -20.307  0.530E-01  0.530E-01  0.530E-01  0.530E-01
 -20.297  0.529E-01  0.529E-01  0.529E-01  0.529E-01
 -20.287  0.529E-01  0.529E-01  0.529E-01  0.529E-01
 -20.277  0.528E-01  0.528E-01  0.528E-01  0.528E-01
 -20.267  0.527E-01  0.527E-01  0.527E-01  0.527E-01
 -20.257  0.527E-01  0.527E-01  0.527E-01  0.527E-01
 -20.247  0.526E-01  0.526E-01  0.526E-01  0.526E-01
 -20.237  0.526E-01  0.526E-01  0.526E-01  0.526E-01
 -20.227  0.525E-01  0.525E-01  0.525E-01  0.525E-01
 -20.217  0.525E-01  0.525E-01  0.525E-01  0.525E-01
 -20.207  0.524E-01  0.524E-01  0.524E-01  0.524E-01
 -20.197  0.524E-01  0.524E-01  0.524E-01  0.524E-01
 -20.187  0.523E-01  0.523E-01  0.523E-01  0.523E-01
 -20.177  0.523E-01  0.523E-01  0.523E-01  0.523E-01
 -20.167  0.522E-01  0.522E-01  0.522E-01  0.522E-01
 -20.157  0.521E-01  0.521E-01  0.521E-01  0.521E-01
 -20.147  0.521E-01  0.521E-01  0.521E-01  0.521E-01
 -20.137  0.521E-01  0.521E-01  0.521E-01  0.521E-01
 -20.127  0.520E-01  0.520E-01  0.520E-01  0.520E-01
 -20.117  0.520E-01  0.520E-01  0.520E-01  0.520E-01
 -20.107  0.520E-01  0.520E-01  0.520E-01  0.520E-01
 -20.097  0.520E-01  0.520E-01  0.520E-01  0.520E-01
 -20.087  0.520E-01  0.520E-01  0.520E-01  0.520E-01
 -20.077  0.520E-01  0.520E-01  0.520E-01  0.520E-01
 -20.067  0.520E-01  0.520E-01  0.520E-01  0.520E-01
 -20.057  0.520E-01  0.520E-01  0.520E-01  0.520E-01
 -20.047  0.519E-01  0.519E-01  0.519E-01  0.519E-01
 -20.037  0.519E-01  0.519E-01  0.519E-01  0.519E-01
 -20.027  0.519E-01  0.519E-01  0.519E-01  0.519E-01
 -20.017  0.519E-01  0.519E-01  0.519E-01  0.519E-01
 -20.007  0.519E-01  0.519E-01  0.519E-01  0.519E-01
 -19.997  0.519E-01  0.519E-01  0.519E-01  0.519E-01
 -19.987  0.519E-01  0.519E-01  0.519E-01  0.519E-01
 -19.977  0.519E-01  0.519E-01  0.519E-01  0.519E-01
 -19.967  0.519E-01  0.518E-01  0.519E-01  0.518E-01
 -19.957  0.518E-01  0.518E-01  0.518E-01  0.518E-01
 -19.947  0.518E-01  0.518E-01  0.518E-01  0.518E-01
 -19.937  0.517E-01  0.517E-01  0.517E-01  0.517E-01
 -19.927  0.515E-01  0.515E-01  0.515E-01  0.515E-01
 -19.917  0.512E-01  0.512E-01  0.512E-01  0.512E-01
 -19.907  0.509E-01  0.509E-01  0.509E-01  0.509E-01
 -19.897  0.507E-01  0.507E-01  0.507E-01  0.507E-01
 -19.887  0.506E-01  0.506E-01  0.506E-01  0.506E-01
 -19.877  0.506E-01  0.506E-01  0.506E-01  0.506E-01
 -19.867  0.505E-01  0.505E-01  0.505E-01  0.505E-01
 -19.857  0.504E-01  0.504E-01  0.504E-01  0.504E-01
 -19.847  0.503E-01  0.503E-01  0.503E-01  0.503E-01
 -19.837  0.503E-01  0.503E-01  0.503E-01  0.503E-01
 -19.827  0.502E-01  0.502E-01  0.502E-01  0.502E-01
 -19.817  0.501E-01  0.501E-01  0.501E-01  0.501E-01
 -19.807  0.501E-01  0.501E-01  0.501E-01  0.501E-01
 -19.797  0.500E-01  0.500E-01  0.500E-01  0.500E-01
 -19.787  0.499E-01  0.499E-01  0.499E-01  0.499E-01
 -19.777  0.499E-01  0.499E-01  0.499E-01  0.499E-01
 -19.767  0.498E-01  0.498E-01  0.498E-01  0.498E-01
 -19.757  0.498E-01  0.498E-01  0.498E-01  0.498E-01
 -19.747  0.498E-01  0.498E-01  0.498E-01  0.498E-01
 -19.737  0.497E-01  0.497E-01  0.497E-01  0.497E-01
 -19.727  0.497E-01  0.497E-01  0.497E-01  0.497E-01
 -19.717  0.497E-01  0.497E-01  0.497E-01  0.497E-01
 -19.707  0.496E-01  0.496E-01  0.496E-01  0.496E-01
 -19.697  0.496E-01  0.496E-01  0.496E-01  0.496E-01
 -19.687  0.496E-01  0.496E-01  0.496E-01  0.496E-01
 -19.677  0.496E-01  0.496E-01  0.496E-01  0.496E-01
 -19.667  0.495E-01  0.495E-01  0.495E-01  0.495E-01
 -19.657  0.495E-01  0.495E-01  0.495E-01  0.495E-01
 -19.647  0.495E-01  0.495E-01  0.495E-01  0.495E-01
 -19.637  0.494E-01  0.494E-01  0.494E-01  0.494E-01
 -19.627  0.494E-01  0.494E-01  0.494E-01  0.494E-01
 -19.617  0.494E-01  0.494E-01  0.494E-01  0.494E-01
 -19.607  0.494E-01  0.494E-01  0.494E-01  0.494E-01
 -19.597  0.493E-01  0.493E-01  0.493E-01  0.493E-01
 -19.587  0.493E-01  0.493E-01  0.493E-01  0.493E-01
 -19.577  0.493E-01  0.493E-01  0.493E-01  0.493E-01
 -19.567  0.493E-01  0.493E-01  0.493E-01  0.493E-01
 -19.557  0.493E-01  0.493E-01  0.493E-01  0.493E-01
 -19.547  0.493E-01  0.493E-01  0.493E-01  0.493E-01
 -19.537  0.492E-01  0.492E-01  0.492E-01  0.492E-01
 -19.527  0.492E-01  0.492E-01  0.492E-01  0.492E-01
 -19.517  0.492E-01  0.492E-01  0.492E-01  0.492E-01
 -19.507  0.492E-01  0.492E-01  0.492E-01  0.492E-01
 -19.497  0.492E-01  0.492E-01  0.492E-01  0.492E-01
 -19.487  0.492E-01  0.492E-01  0.492E-01  0.492E-01
 -19.477  0.492E-01  0.492E-01  0.492E-01  0.492E-01
 -19.467  0.492E-01  0.492E-01  0.492E-01  0.492E-01
 -19.457  0.492E-01  0.492E-01  0.492E-01  0.492E-01
 -19.447  0.492E-01  0.492E-01  0.492E-01  0.492E-01
 -19.437  0.492E-01  0.492E-01  0.492E-01  0.492E-01
 -19.427  0.492E-01  0.492E-01  0.492E-01  0.492E-01
 -19.417  0.487E-01  0.487E-01  0.487E-01  0.487E-01
 -19.407  0.486E-01  0.486E-01  0.486E-01  0.486E-01
 -19.397  0.485E-01  0.485E-01  0.485E-01  0.485E-01
 -19.387  0.484E-01  0.484E-01  0.484E-01  0.484E-01
 -19.377  0.483E-01  0.483E-01  0.483E-01  0.483E-01
 -19.367  0.482E-01  0.482E-01  0.482E-01  0.482E-01
 -19.357  0.481E-01  0.481E-01  0.481E-01  0.481E-01
 -19.347  0.480E-01  0.480E-01  0.480E-01  0.480E-01
 -19.337  0.480E-01  0.480E-01  0.480E-01  0.480E-01
 -19.327  0.479E-01  0.479E-01  0.479E-01  0.479E-01
 -19.317  0.479E-01  0.479E-01  0.479E-01  0.479E-01
 -19.307  0.479E-01  0.478E-01  0.479E-01  0.478E-01
 -19.297  0.478E-01  0.478E-01  0.478E-01  0.478E-01
 -19.287  0.478E-01  0.478E-01  0.478E-01  0.478E-01
 -19.277  0.477E-01  0.477E-01  0.477E-01  0.477E-01
 -19.267  0.477E-01  0.477E-01  0.477E-01  0.477E-01
 -19.257  0.477E-01  0.477E-01  0.477E-01  0.477E-01
 -19.247  0.476E-01  0.476E-01  0.476E-01  0.476E-01
 -19.237  0.476E-01  0.476E-01  0.476E-01  0.476E-01
 -19.227  0.476E-01  0.476E-01  0.476E-01  0.476E-01
 -19.217  0.475E-01  0.475E-01  0.475E-01  0.475E-01
 -19.207  0.475E-01  0.475E-01  0.475E-01  0.475E-01
 -19.197  0.475E-01  0.475E-01  0.475E-01  0.475E-01
 -19.187  0.474E-01  0.474E-01  0.474E-01  0.474E-01
 -19.177  0.474E-01  0.474E-01  0.474E-01  0.474E-01
 -19.167  0.474E-01  0.474E-01  0.474E-01  0.474E-01
 -19.157  0.474E-01  0.474E-01  0.474E-01  0.474E-01
 -19.147  0.473E-01  0.473E-01  0.473E-01  0.473E-01
 -19.137  0.473E-01  0.473E-01  0.473E-01  0.473E-01
 -19.127  0.473E-01  0.473E-01  0.473E-01  0.473E-01
 -19.117  0.473E-01  0.473E-01  0.473E-01  0.473E-01
 -19.107  0.473E-01  0.473E-01  0.473E-01  0.473E-01
 -19.097  0.473E-01  0.473E-01  0.473E-01  0.473E-01
 -19.087  0.473E-01  0.473E-01  0.473E-01  0.473E-01
 -19.077  0.472E-01  0.472E-01  0.472E-01  0.472E-01
 -19.067  0.472E-01  0.472E-01  0.472E-01  0.472E-01
 -19.057  0.472E-01  0.472E-01  0.472E-01  0.472E-01
 -19.047  0.472E-01  0.472E-01  0.472E-01  0.472E-01
 -19.037  0.472E-01  0.472E-01  0.472E-01  0.472E-01
 -19.027  0.472E-01  0.472E-01  0.472E-01  0.472E-01
 -19.017  0.471E-01  0.471E-01  0.471E-01  0.471E-01
 -19.007  0.471E-01  0.471E-01  0.471E-01  0.471E-01
 -18.997  0.471E-01  0.471E-01  0.471E-01  0.471E-01
 -18.987  0.471E-01  0.471E-01  0.471E-01  0.471E-01
 -18.977  0.471E-01  0.471E-01  0.471E-01  0.471E-01
 -18.967  0.471E-01  0.471E-01  0.471E-01  0.471E-01
 -18.957  0.471E-01  0.471E-01  0.471E-01  0.471E-01
 -18.947  0.470E-01  0.470E-01  0.470E-01  0.470E-01
 -18.937  0.470E-01  0.470E-01  0.470E-01  0.470E-01
 -18.927  0.470E-01  0.470E-01  0.470E-01  0.470E-01
 -18.917  0.470E-01  0.470E-01  0.470E-01  0.470E-01
 -18.907  0.470E-01  0.470E-01  0.470E-01  0.470E-01
 -18.897  0.470E-01  0.470E-01  0.470E-01  0.470E-01
 -18.887  0.470E-01  0.470E-01  0.470E-01  0.470E-01
 -18.877  0.470E-01  0.470E-01  0.470E-01  0.470E-01
 -18.867  0.470E-01  0.470E-01  0.470E-01  0.470E-01
 -18.857  0.468E-01  0.468E-01  0.468E-01  0.468E-01
 -18.847  0.467E-01  0.467E-01  0.467E-01  0.467E-01
 -18.837  0.465E-01  0.465E-01  0.465E-01  0.465E-01
 -18.827  0.465E-01  0.465E-01  0.465E-01  0.465E-01
 -18.817  0.464E-01  0.464E-01  0.464E-01  0.464E-01
 -18.807  0.464E-01  0.464E-01  0.464E-01  0.464E-01
 -18.797  0.463E-01  0.463E-01  0.463E-01  0.463E-01
 -18.787  0.463E-01  0.463E-01  0.463E-01  0.463E-01
 -18.777  0.462E-01  0.462E-01  0.462E-01  0.462E-01
 -18.767  0.462E-01  0.462E-01  0.462E-01  0.462E-01
 -18.757  0.462E-01  0.462E-01  0.462E-01  0.462E-01
 -18.747  0.461E-01  0.461E-01  0.461E-01  0.461E-01
 -18.737  0.461E-01  0.461E-01  0.461E-01  0.461E-01
 -18.727  0.460E-01  0.460E-01  0.460E-01  0.460E-01
 -18.717  0.460E-01  0.460E-01  0.460E-01  0.460E-01
 -18.707  0.460E-01  0.460E-01  0.460E-01  0.460E-01
 -18.697  0.459E-01  0.459E-01  0.459E-01  0.459E-01
 -18.687  0.459E-01  0.459E-01  0.459E-01  0.459E-01
 -18.677  0.459E-01  0.459E-01  0.459E-01  0.459E-01
 -18.667  0.459E-01  0.459E-01  0.459E-01  0.459E-01
 -18.657  0.459E-01  0.459E-01  0.459E-01  0.459E-01
 -18.647  0.458E-01  0.458E-01  0.458E-01  0.458E-01
 -18.637  0.458E-01  0.458E-01  0.458E-01  0.458E-01
 -18.627  0.458E-01  0.458E-01  0.458E-01  0.458E-01
 -18.617  0.458E-01  0.458E-01  0.458E-01  0.458E-01
 -18.607  0.458E-01  0.458E-01  0.458E-01  0.458E-01
 -18.597  0.458E-01  0.458E-01  0.458E-01  0.458E-01
 -18.587  0.457E-01  0.457E-01  0.457E-01  0.457E-01
 -18.577  0.457E-01  0.457E-01  0.457E-01  0.457E-01
 -18.567  0.457E-01  0.457E-01  0.457E-01  0.457E-01
 -18.557  0.457E-01  0.457E-01  0.457E-01  0.457E-01
 -18.547  0.457E-01  0.457E-01  0.457E-01  0.457E-01
 -18.537  0.457E-01  0.457E-01  0.457E-01  0.457E-01
 -18.527  0.457E-01  0.457E-01  0.457E-01  0.457E-01
 -18.517  0.456E-01  0.456E-01  0.456E-01  0.456E-01
 -18.507  0.456E-01  0.456E-01  0.456E-01  0.456E-01
 -18.497  0.456E-01  0.456E-01  0.456E-01  0.456E-01
 -18.487  0.456E-01  0.456E-01  0.456E-01  0.456E-01
 -18.477  0.456E-01  0.456E-01  0.456E-01  0.456E-01
 -18.467  0.456E-01  0.456E-01  0.456E-01  0.456E-01
 -18.457  0.456E-01  0.456E-01  0.456E-01  0.456E-01
 -18.447  0.456E-01  0.456E-01  0.456E-01  0.456E-01
 -18.437  0.456E-01  0.456E-01  0.456E-01  0.456E-01
 -18.427  0.456E-01  0.456E-01  0.456E-01  0.456E-01
 -18.417  0.456E-01  0.456E-01  0.456E-01  0.456E-01
 -18.407  0.456E-01  0.456E-01  0.456E-01  0.456E-01
 -18.397  0.456E-01  0.456E-01  0.456E-01  0.456E-01
 -18.387  0.456E-01  0.456E-01  0.456E-01  0.456E-01
 -18.377  0.456E-01  0.456E-01  0.456E-01  0.456E-01
 -18.367  0.456E-01  0.456E-01  0.456E-01  0.456E-01
 -18.357  0.456E-01  0.456E-01  0.456E-01  0.456E-01
 -18.347  0.456E-01  0.456E-01  0.456E-01  0.456E-01
 -18.337  0.456E-01  0.456E-01  0.456E-01  0.456E-01
 -18.327  0.456E-01  0.456E-01  0.456E-01  0.456E-01
 -18.317  0.456E-01  0.456E-01  0.456E-01  0.456E-01
 -18.307  0.456E-01  0.456E-01  0.456E-01  0.456E-01
 -18.297  0.456E-01  0.456E-01  0.456E-01  0.456E-01
 -18.287  0.456E-01  0.456E-01  0.456E-01  0.456E-01
 -18.277  0.456E-01  0.456E-01  0.456E-01  0.456E-01
 -18.267  0.456E-01  0.456E-01  0.456E-01  0.456E-01
 -18.257  0.456E-01  0.456E-01  0.456E-01  0.456E-01
 -18.247  0.454E-01  0.454E-01  0.454E-01  0.454E-01
 -18.237  0.453E-01  0.453E-01  0.453E-01  0.453E-01
 -18.227  0.453E-01  0.453E-01  0.453E-01  0.453E-01
 -18.217  0.453E-01  0.453E-01  0.453E-01  0.453E-01
 -18.207  0.452E-01  0.452E-01  0.452E-01  0.452E-01
 -18.197  0.452E-01  0.452E-01  0.452E-01  0.452E-01
 -18.187  0.452E-01  0.452E-01  0.452E-01  0.452E-01
 -18.177  0.451E-01  0.451E-01  0.451E-01  0.451E-01
 -18.167  0.451E-01  0.451E-01  0.451E-01  0.451E-01
 -18.157  0.451E-01  0.451E-01  0.451E-01  0.451E-01
 -18.147  0.451E-01  0.451E-01  0.451E-01  0.451E-01
 -18.137  0.451E-01  0.451E-01  0.451E-01  0.451E-01
